* This data was exported from the Dayton Audio Test System: DATS
*
* Piston Diameter = 75 mm
* f(s)= 127.8 Hz
* R(e)= 3.364 Ohms
* Z(max)= 18.33 Ohms
* Q(ms)= 2.91
* Q(es)= 0.6544
* Q(ts)= 0.5343
* V(as)= 1.427 liters     (0.0504 cubic feet)
* L(e)= 0 mH
* n(0)= 0.434 %
* SPL= 88.47 1W/1m
* M(ms)= 2.979 grams
* C(ms)= 0.521 mm/N
* BL= 3.507 
* K(r)= 0.115 
* X(r)= 0.3517 
* K(i)= 0.003053 
* X(i)= 0.6553 
*
*
Freq            Impedance       Phase
1.029    	3.446    	-0.930    
1.059    	3.446    	-0.930    
1.091    	3.446    	-0.930    
1.122    	3.446    	-0.930    
1.155    	3.446    	-0.930    
1.189    	3.446    	-0.930    
1.224    	3.446    	-0.930    
1.260    	3.446    	-0.930    
1.297    	3.446    	-0.930    
1.335    	3.407    	-0.519    
1.374    	3.407    	-0.519    
1.414    	3.407    	-0.519    
1.456    	3.407    	-0.519    
1.498    	3.407    	-0.519    
1.542    	3.407    	-0.519    
1.587    	3.407    	-0.519    
1.634    	3.407    	-0.519    
1.682    	3.362    	-0.177    
1.731    	3.362    	-0.177    
1.782    	3.362    	-0.177    
1.834    	3.362    	-0.177    
1.888    	3.362    	-0.177    
1.943    	3.362    	-0.177    
2.000    	3.346    	0.242    
2.059    	3.346    	0.242    
2.119    	3.346    	0.242    
2.181    	3.346    	0.242    
2.245    	3.346    	0.242    
2.311    	3.346    	0.242    
2.378    	3.343    	0.849    
2.448    	3.343    	0.849    
2.520    	3.343    	0.849    
2.594    	3.343    	0.849    
2.670    	3.351    	1.413    
2.748    	3.351    	1.413    
2.828    	3.351    	1.413    
2.911    	3.351    	1.413    
2.997    	3.358    	2.033    
3.084    	3.358    	2.033    
3.175    	3.358    	2.033    
3.268    	3.358    	2.033    
3.364    	3.366    	2.433    
3.462    	3.366    	2.433    
3.564    	3.366    	2.433    
3.668    	3.366    	2.795    
3.775    	3.366    	2.795    
3.886    	3.366    	2.795    
4.000    	3.369    	3.119    
4.117    	3.369    	3.119    
4.238    	3.369    	3.119    
4.362    	3.373    	3.378    
4.490    	3.373    	3.378    
4.621    	3.373    	3.378    
4.757    	3.379    	3.696    
4.896    	3.379    	3.696    
5.040    	3.378    	3.960    
5.187    	3.378    	3.960    
5.339    	3.385    	4.160    
5.496    	3.385    	4.160    
5.657    	3.395    	4.375    
5.823    	3.395    	4.375    
5.993    	3.398    	4.594    
6.169    	3.398    	4.594    
6.350    	3.397    	4.816    
6.536    	3.397    	4.816    
6.727    	3.398    	5.027    
6.924    	3.398    	5.027    
7.127    	3.404    	5.254    
7.336    	3.407    	5.540    
7.551    	3.407    	5.540    
7.772    	3.407    	5.819    
8.000    	3.406    	6.069    
8.234    	3.406    	6.069    
8.476    	3.405    	6.330    
8.724    	3.403    	6.583    
8.980    	3.403    	6.828    
9.243    	3.403    	6.828    
9.514    	3.407    	7.059    
9.792    	3.414    	7.262    
10.079    	3.423    	7.476    
10.375    	3.430    	7.709    
10.679    	3.430    	7.929    
10.992    	3.427    	8.123    
11.314    	3.427    	8.291    
11.645    	3.432    	8.470    
11.986    	3.436    	8.684    
12.338    	3.437    	8.885    
12.699    	3.440    	9.057    
13.071    	3.448    	9.240    
13.454    	3.458    	9.449    
13.849    	3.464    	9.661    
14.254    	3.467    	9.848    
14.672    	3.475    	10.105    
15.102    	3.485    	10.401    
15.545    	3.492    	10.601    
16.000    	3.505    	10.899    
16.469    	3.516    	11.218    
16.951    	3.525    	11.548    
17.448    	3.533    	11.866    
17.959    	3.541    	12.184    
18.486    	3.552    	12.508    
19.027    	3.564    	12.835    
19.585    	3.576    	13.265    
20.159    	3.584    	13.597    
20.749    	3.592    	13.943    
21.357    	3.607    	14.369    
21.983    	3.624    	14.795    
22.627    	3.635    	15.219    
23.290    	3.651    	15.614    
23.973    	3.663    	16.035    
24.675    	3.670    	16.415    
25.398    	3.682    	16.799    
26.143    	3.694    	17.168    
26.909    	3.713    	17.598    
27.697    	3.738    	18.019    
28.509    	3.758    	18.369    
29.344    	3.785    	18.828    
30.204    	3.808    	19.383    
31.089    	3.829    	19.848    
32.000    	3.851    	20.312    
32.938    	3.882    	20.828    
33.903    	3.915    	21.410    
34.896    	3.950    	22.021    
35.919    	3.982    	22.625    
36.971    	4.011    	23.217    
38.055    	4.041    	23.779    
39.170    	4.080    	24.424    
40.317    	4.117    	25.031    
41.499    	4.156    	25.539    
42.715    	4.205    	25.993    
43.967    	4.251    	26.642    
45.255    	4.306    	27.287    
46.581    	4.371    	27.956    
47.946    	4.428    	28.631    
49.351    	4.475    	29.219    
50.797    	4.553    	29.983    
52.285    	4.636    	30.827    
53.817    	4.710    	31.569    
55.394    	4.800    	32.292    
57.018    	4.879    	32.877    
58.688    	4.971    	33.479    
60.408    	5.093    	34.184    
62.178    	5.222    	34.943    
64.000    	5.349    	35.674    
65.875    	5.488    	36.457    
67.806    	5.638    	37.213    
69.792    	5.798    	37.869    
71.838    	5.984    	38.430    
73.943    	6.181    	38.962    
76.109    	6.414    	39.502    
78.339    	6.695    	40.105    
80.635    	6.988    	40.673    
82.998    	7.292    	41.131    
85.430    	7.622    	41.305    
87.933    	8.028    	41.323    
90.510    	8.493    	41.260    
93.162    	9.001    	41.149    
95.892    	9.630    	40.719    
98.701    	10.309    	39.878    
101.594    	11.072    	38.527    
104.571    	12.004    	36.505    
107.635    	13.040    	34.018    
110.789    	14.141    	30.697    
114.035    	15.229    	26.359    
117.377    	16.306    	21.108    
120.816    	17.346    	14.629    
124.356    	18.052    	7.639    
128.000    	18.303    	0.217    
131.751    	18.109    	-7.860    
135.611    	17.582    	-15.178    
139.585    	16.680    	-21.389    
143.675    	15.530    	-27.195    
147.885    	14.419    	-31.931    
152.219    	13.389    	-35.447    
156.679    	12.321    	-38.250    
161.270    	11.369    	-40.670    
165.995    	10.595    	-42.126    
170.860    	9.854    	-43.214    
175.866    	9.193    	-44.079    
181.019    	8.645    	-44.322    
186.324    	8.125    	-44.379    
191.783    	7.671    	-44.270    
197.403    	7.259    	-43.798    
203.187    	6.894    	-43.345    
209.141    	6.577    	-42.577    
215.269    	6.279    	-41.941    
221.577    	6.027    	-40.981    
228.070    	5.778    	-40.276    
234.753    	5.607    	-39.291    
241.632    	5.381    	-38.389    
248.712    	5.251    	-37.520    
256.000    	5.052    	-36.291    
263.501    	4.950    	-35.470    
271.223    	4.781    	-34.122    
279.170    	4.714    	-33.254    
287.350    	4.570    	-32.122    
295.770    	4.507    	-30.961    
304.437    	4.404    	-30.052    
313.358    	4.338    	-28.805    
322.540    	4.272    	-28.034    
331.991    	4.192    	-26.951    
341.719    	4.142    	-25.860    
351.732    	4.092    	-24.961    
362.039    	4.044    	-24.054    
372.647    	4.004    	-23.213    
383.567    	3.957    	-22.353    
394.806    	3.913    	-21.488    
406.375    	3.877    	-20.589    
418.282    	3.837    	-19.723    
430.539    	3.804    	-18.940    
443.155    	3.774    	-17.987    
456.140    	3.752    	-17.081    
469.506    	3.734    	-16.349    
483.264    	3.708    	-15.623    
497.424    	3.683    	-14.819    
512.000    	3.662    	-14.000    
527.003    	3.642    	-13.180    
542.445    	3.627    	-12.333    
558.340    	3.617    	-11.517    
574.701    	3.609    	-10.785    
591.541    	3.601    	-10.127    
608.874    	3.595    	-9.429    
626.715    	3.590    	-8.733    
645.080    	3.580    	-8.031    
663.982    	3.576    	-7.342    
683.438    	3.579    	-6.708    
703.464    	3.583    	-6.090    
724.077    	3.587    	-5.508    
745.294    	3.590    	-5.015    
767.133    	3.591    	-4.575    
789.612    	3.591    	-4.167    
812.749    	3.585    	-3.780    
836.565    	3.575    	-3.335    
861.078    	3.562    	-2.841    
886.309    	3.547    	-2.364    
912.280    	3.529    	-1.710    
939.012    	3.524    	-1.057    
966.527    	3.515    	-0.381    
994.849    	3.517    	0.362    
1024.000    	3.514    	1.063    
1054.005    	3.512    	1.782    
1084.890    	3.514    	2.425    
1116.680    	3.522    	3.153    
1149.401    	3.528    	3.857    
1183.081    	3.538    	4.571    
1217.748    	3.551    	5.306    
1253.431    	3.567    	6.029    
1290.159    	3.601    	6.870    
1327.964    	3.640    	6.697    
1366.876    	3.608    	7.098    
1406.929    	3.614    	7.935    
1448.155    	3.627    	8.609    
1490.589    	3.641    	9.204    
1534.266    	3.662    	9.879    
1579.224    	3.681    	10.566    
1625.499    	3.701    	11.139    
1673.129    	3.727    	11.764    
1722.156    	3.751    	12.306    
1772.619    	3.781    	12.828    
1824.561    	3.812    	13.355    
1878.024    	3.841    	13.779    
1933.055    	3.866    	14.156    
1989.697    	3.890    	14.597    
2048.000    	3.906    	15.043    
2108.011    	3.925    	15.521    
2169.780    	3.948    	16.105    
2233.360    	3.972    	16.706    
2298.802    	3.997    	17.280    
2366.162    	4.027    	17.854    
2435.496    	4.062    	18.498    
2506.862    	4.103    	19.093    
2580.318    	4.150    	19.668    
2655.927    	4.205    	20.218    
2733.752    	4.269    	20.674    
2813.857    	4.342    	20.940    
2896.309    	4.415    	20.876    
2981.178    	4.460    	20.607    
3068.533    	4.477    	20.047    
3158.448    	4.442    	19.955    
3250.997    	4.421    	20.438    
3346.259    	4.411    	21.055    
3444.312    	4.415    	21.829    
3545.238    	4.447    	22.656    
3649.121    	4.476    	23.395    
3756.049    	4.512    	24.101    
3866.109    	4.556    	24.795    
3979.395    	4.604    	25.428    
4096.000    	4.653    	25.955    
4216.022    	4.705    	26.552    
4339.561    	4.759    	27.113    
4466.720    	4.813    	27.595    
4597.605    	4.865    	28.120    
4732.325    	4.920    	28.676    
4870.992    	4.997    	29.271    
5013.723    	5.053    	29.388    
5160.637    	5.091    	30.012    
5311.855    	5.153    	30.591    
5467.504    	5.220    	31.153    
5627.714    	5.293    	31.684    
5792.619    	5.369    	32.199    
5962.355    	5.446    	32.728    
6137.066    	5.526    	33.199    
6316.896    	5.613    	33.677    
6501.995    	5.707    	34.173    
6692.518    	5.808    	34.627    
6888.623    	5.921    	35.049    
7090.476    	6.040    	35.377    
7298.242    	6.177    	35.549    
7512.097    	6.315    	35.523    
7732.218    	6.451    	35.177    
7958.790    	6.548    	34.584    
8192.000    	6.601    	33.863    
8432.044    	6.566    	33.491    
8679.122    	6.542    	33.908    
8933.439    	6.580    	34.549    
9195.209    	6.638    	35.015    
9464.649    	6.693    	35.520    
9741.985    	6.767    	36.179    
10027.447    	6.864    	36.517    
10321.273    	6.923    	36.959    
10623.710    	7.010    	37.530    
10935.008    	7.107    	38.079    
11255.428    	7.211    	38.564    
11585.238    	7.326    	39.016    
11924.711    	7.445    	39.446    
12274.132    	7.570    	39.813    
12633.791    	7.697    	40.168    
13003.989    	7.822    	40.483    
13385.035    	7.956    	40.804    
13777.247    	8.093    	41.094    
14180.951    	8.225    	41.299    
14596.485    	8.365    	41.532    
15024.194    	8.503    	41.787    
15464.437    	8.647    	41.961    
15917.579    	8.790    	42.112    
16384.000    	8.935    	42.276    
16864.088    	9.081    	42.397    
17358.243    	9.219    	42.538    
17866.879    	9.355    	42.655    
18390.418    	9.490    	42.811    
18929.299    	9.640    	42.957    
19483.969    	9.772    	43.112    
20054.893    	9.913    	43.253    
20642.546    	10.065    	43.386    
