* This data was exported from the Dayton Audio Test System: DATS
*
* Piston Diameter = 40 mm
* f(s)= 579.5 Hz
* R(e)= 3.655 Ohms
* Z(max)= 8.586 Ohms
* Q(ms)= 2.125
* Q(es)= 1.575
* Q(ts)= 0.9044
* V(as)= 0 liters     (0 cubic feet)
* L(e)= 0 mH
* n(0)= 0 %
* SPL= 0 1W/1m
* M(ms)= 0 grams
* C(ms)= 0 mm/N
* BL= 0 
* K(r)= 2.419 
* X(r)= 0.03968 
* K(i)= 0 
* X(i)= 2.044 
*
*
Freq            Impedance       Phase
1.029    	3.287    	-7.495    
1.059    	3.287    	-7.495    
1.091    	3.287    	-7.495    
1.122    	3.287    	-7.495    
1.155    	3.287    	-7.495    
1.189    	3.287    	-7.495    
1.224    	3.287    	-7.495    
1.260    	3.287    	-7.495    
1.297    	3.287    	-7.495    
1.335    	3.285    	-5.333    
1.374    	3.285    	-5.333    
1.414    	3.285    	-5.333    
1.456    	3.285    	-5.333    
1.498    	3.285    	-5.333    
1.542    	3.285    	-5.333    
1.587    	3.285    	-5.333    
1.634    	3.285    	-5.333    
1.682    	3.285    	-4.081    
1.731    	3.285    	-4.081    
1.782    	3.285    	-4.081    
1.834    	3.285    	-4.081    
1.888    	3.285    	-4.081    
1.943    	3.285    	-4.081    
2.000    	3.288    	-3.332    
2.059    	3.288    	-3.332    
2.119    	3.288    	-3.332    
2.181    	3.288    	-3.332    
2.245    	3.288    	-3.332    
2.311    	3.288    	-3.332    
2.378    	3.291    	-1.737    
2.448    	3.291    	-1.737    
2.520    	3.291    	-1.737    
2.594    	3.291    	-1.737    
2.670    	3.293    	0.062    
2.748    	3.293    	0.062    
2.828    	3.293    	0.062    
2.911    	3.293    	0.062    
2.997    	3.293    	1.737    
3.084    	3.293    	1.737    
3.175    	3.293    	1.737    
3.268    	3.293    	1.737    
3.364    	3.300    	1.907    
3.462    	3.300    	1.907    
3.564    	3.300    	1.907    
3.668    	3.297    	1.435    
3.775    	3.297    	1.435    
3.886    	3.297    	1.435    
4.000    	3.316    	0.870    
4.117    	3.316    	0.870    
4.238    	3.316    	0.870    
4.362    	3.345    	0.494    
4.490    	3.345    	0.494    
4.621    	3.345    	0.494    
4.757    	3.395    	0.373    
4.896    	3.395    	0.373    
5.040    	3.431    	0.423    
5.187    	3.431    	0.423    
5.339    	3.451    	0.612    
5.496    	3.451    	0.612    
5.657    	3.455    	0.876    
5.823    	3.455    	0.876    
5.993    	3.448    	1.108    
6.169    	3.448    	1.108    
6.350    	3.437    	1.265    
6.536    	3.437    	1.265    
6.727    	3.423    	1.286    
6.924    	3.423    	1.286    
7.127    	3.410    	1.152    
7.336    	3.400    	0.898    
7.551    	3.400    	0.898    
7.772    	3.391    	0.553    
8.000    	3.384    	0.192    
8.234    	3.384    	0.192    
8.476    	3.378    	-0.114    
8.724    	3.373    	-0.322    
8.980    	3.367    	-0.385    
9.243    	3.367    	-0.385    
9.514    	3.361    	-0.291    
9.792    	3.355    	-0.048    
10.079    	3.349    	0.341    
10.375    	3.345    	0.847    
10.679    	3.344    	1.431    
10.992    	3.346    	2.051    
11.314    	3.352    	2.643    
11.645    	3.363    	3.163    
11.986    	3.377    	3.577    
12.338    	3.394    	3.853    
12.699    	3.414    	3.980    
13.071    	3.436    	3.951    
13.454    	3.458    	3.771    
13.849    	3.479    	3.460    
14.254    	3.499    	3.042    
14.672    	3.522    	2.256    
15.102    	3.537    	1.369    
15.545    	3.540    	0.760    
16.000    	3.536    	-0.098    
16.469    	3.523    	-0.847    
16.951    	3.499    	-1.392    
17.448    	3.469    	-1.766    
17.959    	3.434    	-1.899    
18.486    	3.399    	-1.833    
19.027    	3.366    	-1.518    
19.585    	3.324    	-0.684    
20.159    	3.307    	-0.095    
20.749    	3.293    	0.691    
21.357    	3.286    	1.807    
21.983    	3.291    	2.898    
22.627    	3.308    	3.863    
23.290    	3.336    	4.639    
23.973    	3.371    	5.180    
24.675    	3.411    	5.476    
25.398    	3.453    	5.541    
26.143    	3.497    	5.415    
26.909    	3.550    	5.076    
27.697    	3.600    	4.650    
28.509    	3.635    	4.301    
29.344    	3.671    	3.909    
30.204    	3.699    	3.524    
31.089    	3.711    	3.275    
32.000    	3.709    	3.067    
32.938    	3.692    	2.844    
33.903    	3.661    	2.588    
34.896    	3.621    	2.258    
35.919    	3.581    	1.792    
36.971    	3.548    	1.151    
38.055    	3.527    	0.367    
39.170    	3.525    	-0.565    
40.317    	3.535    	-1.129    
41.499    	3.551    	-1.398    
42.715    	3.595    	-1.302    
43.967    	3.650    	-0.899    
45.255    	3.695    	-0.301    
46.581    	3.739    	0.575    
47.946    	3.765    	1.890    
49.351    	3.747    	3.343    
50.797    	3.676    	4.304    
52.285    	3.628    	4.223    
53.817    	3.669    	4.098    
55.394    	3.755    	5.461    
57.018    	3.761    	8.046    
58.688    	3.621    	10.588    
60.408    	3.403    	11.395    
62.178    	3.196    	10.388    
64.000    	3.072    	7.605    
65.875    	3.108    	4.296    
67.806    	3.195    	2.971    
69.792    	3.242    	1.060    
71.838    	3.503    	-0.976    
73.943    	3.849    	2.273    
76.109    	3.829    	8.796    
78.339    	3.481    	11.745    
80.635    	3.213    	9.507    
82.998    	3.156    	5.568    
85.430    	3.306    	1.632    
87.933    	3.774    	2.544    
90.510    	3.809    	10.874    
93.162    	3.311    	11.991    
95.892    	3.207    	5.397    
98.701    	3.554    	3.165    
101.594    	3.791    	8.963    
104.571    	3.328    	12.105    
107.635    	3.346    	4.124    
110.789    	3.751    	7.602    
114.035    	3.472    	12.406    
117.377    	3.362    	5.959    
120.816    	3.754    	9.388    
124.356    	3.361    	10.676    
128.000    	3.625    	6.866    
131.751    	3.543    	12.221    
135.611    	3.575    	7.753    
139.585    	3.600    	11.904    
143.675    	3.593    	9.127    
147.885    	3.575    	12.034    
152.219    	3.660    	10.215    
156.679    	3.574    	11.578    
161.270    	3.660    	12.038    
165.995    	3.660    	11.801    
170.860    	3.653    	12.367    
175.866    	3.697    	12.684    
181.019    	3.694    	13.006    
186.324    	3.701    	13.567    
191.783    	3.727    	13.761    
197.403    	3.774    	14.242    
203.187    	3.781    	14.684    
209.141    	3.803    	14.866    
215.269    	3.822    	15.308    
221.577    	3.854    	15.593    
228.070    	3.887    	15.998    
234.753    	3.922    	16.665    
241.632    	3.950    	17.268    
248.712    	3.962    	17.348    
256.000    	4.028    	17.826    
263.501    	4.053    	18.509    
271.223    	4.105    	18.844    
279.170    	4.156    	19.372    
287.350    	4.206    	19.823    
295.770    	4.268    	20.426    
304.437    	4.333    	20.842    
313.358    	4.404    	21.281    
322.540    	4.476    	21.799    
331.991    	4.563    	22.303    
341.719    	4.656    	22.706    
351.732    	4.757    	23.081    
362.039    	4.873    	23.507    
372.647    	5.003    	23.819    
383.567    	5.140    	24.119    
394.806    	5.302    	24.282    
406.375    	5.474    	24.276    
418.282    	5.664    	24.263    
430.539    	5.881    	24.038    
443.155    	6.120    	23.629    
456.140    	6.377    	22.969    
469.506    	6.658    	22.018    
483.264    	6.961    	20.722    
497.424    	7.275    	19.042    
512.000    	7.594    	16.885    
527.003    	7.907    	14.226    
542.445    	8.186    	11.134    
558.340    	8.408    	7.666    
574.701    	8.552    	3.842    
591.541    	8.601    	-0.125    
608.874    	8.550    	-4.123    
626.715    	8.406    	-7.951    
645.080    	8.186    	-11.491    
663.982    	7.916    	-14.605    
683.438    	7.622    	-17.286    
703.464    	7.310    	-19.606    
724.077    	6.995    	-21.551    
745.294    	6.682    	-23.131    
767.133    	6.377    	-24.379    
789.612    	6.088    	-25.281    
812.749    	5.816    	-25.850    
836.565    	5.561    	-26.087    
861.078    	5.330    	-26.063    
886.309    	5.128    	-25.880    
912.280    	4.946    	-25.531    
939.012    	4.783    	-25.035    
966.527    	4.639    	-24.426    
994.849    	4.516    	-23.749    
1024.000    	4.404    	-23.062    
1054.005    	4.302    	-22.311    
1084.890    	4.214    	-21.581    
1116.680    	4.137    	-20.819    
1149.401    	4.064    	-20.041    
1183.081    	4.001    	-19.238    
1217.748    	3.947    	-18.489    
1253.431    	3.900    	-17.737    
1290.159    	3.856    	-16.962    
1327.964    	3.818    	-16.224    
1366.876    	3.785    	-15.542    
1406.929    	3.755    	-14.875    
1448.155    	3.726    	-14.274    
1490.589    	3.700    	-13.642    
1534.266    	3.678    	-13.003    
1579.224    	3.658    	-12.390    
1625.499    	3.640    	-11.805    
1673.129    	3.624    	-11.235    
1722.156    	3.606    	-10.687    
1772.619    	3.595    	-10.195    
1824.561    	3.583    	-9.624    
1878.024    	3.573    	-9.143    
1933.055    	3.567    	-8.667    
1989.697    	3.565    	-8.129    
2048.000    	3.560    	-7.706    
2108.011    	3.558    	-7.348    
2169.780    	3.559    	-6.878    
2233.360    	3.557    	-6.442    
2298.802    	3.551    	-6.013    
2366.162    	3.541    	-5.634    
2435.496    	3.530    	-5.225    
2506.862    	3.523    	-4.839    
2580.318    	3.519    	-4.465    
2655.927    	3.524    	-4.121    
2733.752    	3.534    	-3.749    
2813.857    	3.541    	-3.435    
2896.309    	3.545    	-3.103    
2981.178    	3.537    	-2.794    
3068.533    	3.531    	-2.496    
3158.448    	3.528    	-2.138    
3250.997    	3.530    	-1.809    
3346.259    	3.530    	-1.557    
3444.312    	3.527    	-1.241    
3545.238    	3.524    	-0.937    
3649.121    	3.523    	-0.651    
3756.049    	3.525    	-0.328    
3866.109    	3.533    	-0.028    
3979.395    	3.538    	0.263    
4096.000    	3.540    	0.510    
4216.022    	3.544    	0.766    
4339.561    	3.551    	1.022    
4466.720    	3.560    	1.257    
4597.605    	3.567    	1.501    
4732.325    	3.567    	1.751    
4870.992    	3.568    	2.033    
5013.723    	3.570    	2.379    
5160.637    	3.573    	2.662    
5311.855    	3.579    	2.824    
5467.504    	3.587    	3.099    
5627.714    	3.595    	3.315    
5792.619    	3.598    	3.539    
5962.355    	3.604    	3.758    
6137.066    	3.612    	3.951    
6316.896    	3.615    	4.207    
6501.995    	3.619    	4.472    
6692.518    	3.623    	4.725    
6888.623    	3.631    	4.970    
7090.476    	3.637    	5.167    
7298.242    	3.644    	5.397    
7512.097    	3.648    	5.609    
7732.218    	3.656    	5.831    
7958.790    	3.661    	6.055    
8192.000    	3.663    	6.338    
8432.044    	3.667    	6.631    
8679.122    	3.674    	7.003    
8933.439    	3.680    	7.352    
9195.209    	3.685    	8.002    
9464.649    	3.756    	8.546    
9741.985    	3.789    	7.831    
10027.447    	3.767    	7.682    
10321.273    	3.757    	7.941    
10623.710    	3.753    	8.271    
10935.008    	3.751    	8.643    
11255.428    	3.752    	9.048    
11585.238    	3.749    	9.751    
11924.711    	3.798    	11.309    
12274.132    	3.987    	10.811    
12633.791    	3.951    	8.940    
13003.989    	3.894    	9.104    
13385.035    	3.883    	9.449    
13777.247    	3.881    	9.808    
14180.951    	3.886    	10.076    
14596.485    	3.893    	10.348    
15024.194    	3.899    	10.614    
15464.437    	3.911    	10.848    
15917.579    	3.923    	11.124    
16384.000    	3.936    	11.314    
16864.088    	3.946    	11.450    
17358.243    	3.957    	11.631    
17866.879    	3.962    	11.749    
18390.418    	3.961    	11.898    
18929.299    	3.970    	12.130    
19483.969    	3.971    	12.444    
20054.893    	3.975    	12.735    
20642.546    	3.989    	13.004    
