Freq[Hz]  Imp[Ohm]  Phase[Deg]
5.00000      4.251     0.018
5.07273      4.251     0.018
5.14651      4.251     0.019
5.22137      4.251     0.019
5.29732      4.251     0.019
5.37437      4.251     0.019
5.45254      4.251     0.020
5.53185      4.251     0.020
5.61231      4.251     0.020
5.69394      4.251     0.020
5.77676      4.251     0.021
5.86079      4.251     0.021
5.94604      4.251     0.021
6.03252      4.251     0.022
6.12027      4.251     0.022
6.20929      4.251     0.022
6.29961      4.251     0.023
6.39124      4.251     0.023
6.48420      4.251     0.023
6.57851      4.251     0.024
6.67420      4.251     0.024
6.77128      4.251     0.024
6.86977      4.251     0.025
6.96969      4.251     0.025
7.07107      4.251     0.025
7.17392      4.251     0.026
7.27827      4.251     0.026
7.38413      4.251     0.027
7.49154      4.251     0.027
7.60050      4.251     0.027
7.71105      4.251     0.028
7.82321      4.251     0.028
7.93701      4.251     0.029
8.05245      4.251     0.029
8.16958      4.251     0.029
8.28841      4.251     0.030
8.40896      4.251     0.030
8.53128      4.251     0.031
8.65537      4.251     0.031
8.78126      4.251     0.032
8.90899      4.251     0.032
9.03857      4.251     0.033
9.17004      4.251     0.033
9.30342      4.251     0.033
9.43874      4.251     0.034
9.57603      4.251     0.034
9.71532      4.251     0.035
9.85663      4.251     0.035
10.0000      4.251     0.036
10.1455      4.251     0.037
10.2930      4.251     0.037
10.4427      4.251     0.038
10.5946      4.251     0.038
10.7487      4.251     0.039
10.9051      4.251     0.039
11.0637      4.251     0.040
11.2246      4.251     0.040
11.3879      4.251     0.041
11.5535      4.251     0.042
11.7216      4.251     0.042
11.8921      4.251     0.043
12.0650      4.251     0.043
12.2405      4.251     0.044
12.4186      4.251     0.045
12.5992      4.251     0.045
12.7825      4.251     0.046
12.9684      4.251     0.047
13.1570      4.251     0.047
13.3484      4.251     0.048
13.5426      4.251     0.049
13.7395      4.251     0.049
13.9394      4.251     0.050
14.1421      4.251     0.051
14.3478      4.251     0.052
14.5565      4.251     0.052
14.7683      4.251     0.053
14.9831      4.251     0.054
15.2010      4.251     0.055
15.4221      4.251     0.056
15.6464      4.251     0.056
15.8740      4.251     0.057
16.1049      4.251     0.058
16.3392      4.251     0.059
16.5768      4.251     0.060
16.8179      4.251     0.061
17.0626      4.250     0.061
17.3107      4.250     0.062
17.5625      4.250     0.063
17.8180      4.250     0.064
18.0771      4.250     0.065
18.3401      4.250     0.066
18.6068      4.250     0.067
18.8775      4.250     0.068
19.1521      4.250     0.069
19.4306      4.250     0.070
19.7133      4.250     0.071
20.0000      4.250     0.072
20.2909      4.250     0.073
20.5860      4.250     0.074
20.8855      4.250     0.075
21.1893      4.250     0.076
21.4975      4.250     0.077
21.8102      4.250     0.079
22.1274      4.250     0.080
22.4492      4.250     0.081
22.7758      4.250     0.082
23.1071      4.250     0.083
23.4432      4.250     0.085
23.7841      4.250     0.086
24.1301      4.250     0.087
24.4811      4.250     0.088
24.8372      4.250     0.090
25.1984      4.250     0.091
25.5649      4.250     0.092
25.9368      4.250     0.094
26.3141      4.250     0.095
26.6968      4.250     0.096
27.0851      4.250     0.098
27.4791      4.250     0.099
27.8788      4.250     0.101
28.2843      4.250     0.102
28.6957      4.250     0.104
29.1131      4.250     0.105
29.5365      4.250     0.107
29.9661      4.250     0.108
30.4020      4.250     0.110
30.8442      4.250     0.111
31.2929      4.250     0.113
31.7480      4.250     0.115
32.2098      4.250     0.116
32.6783      4.250     0.118
33.1536      4.250     0.120
33.6359      4.250     0.122
34.1251      4.250     0.123
34.6215      4.250     0.125
35.1250      4.250     0.127
35.6359      4.249     0.129
36.1543      4.249     0.131
36.6802      4.249     0.133
37.2137      4.249     0.135
37.7550      4.249     0.137
38.3041      4.249     0.139
38.8613      4.249     0.141
39.4265      4.249     0.143
40.0000      4.249     0.145
40.5818      4.249     0.147
41.1721      4.249     0.149
41.7710      4.249     0.151
42.3785      4.249     0.154
42.9949      4.249     0.156
43.6203      4.249     0.158
44.2548      4.249     0.160
44.8985      4.249     0.163
45.5515      4.249     0.165
46.2141      4.249     0.168
46.8863      4.249     0.170
47.5683      4.248     0.173
48.2602      4.248     0.175
48.9621      4.248     0.178
49.6743      4.248     0.180
50.3968      4.248     0.183
51.1299      4.248     0.186
51.8736      4.248     0.189
52.6281      4.248     0.191
53.3936      4.248     0.194
54.1702      4.248     0.197
54.9581      4.248     0.200
55.7575      4.248     0.203
56.5685      4.247     0.206
57.3914      4.247     0.209
58.2261      4.247     0.212
59.0730      4.247     0.215
59.9323      4.247     0.219
60.8040      4.247     0.222
61.6884      4.247     0.225
62.5857      4.247     0.229
63.4960      4.247     0.232
64.4196      4.247     0.236
65.3566      4.246     0.239
66.3073      4.246     0.243
67.2717      4.246     0.246
68.2502      4.246     0.250
69.2429      4.246     0.254
70.2501      4.246     0.258
71.2719      4.246     0.262
72.3086      4.245     0.266
73.3603      4.245     0.270
74.4274      4.245     0.274
75.5099      4.245     0.278
76.6083      4.245     0.282
77.7226      4.245     0.286
78.8531      4.244     0.291
80.0000      4.244     0.295
81.1636      4.244     0.300
82.3442      4.244     0.304
83.5419      4.244     0.309
84.7570      4.243     0.314
85.9899      4.243     0.318
87.2406      4.243     0.323
88.5096      4.243     0.328
89.7970      4.242     0.333
91.1031      4.242     0.339
92.4282      4.242     0.344
93.7726      4.242     0.349
95.1366      4.241     0.355
96.5204      4.241     0.360
97.9243      4.241     0.366
99.3486      4.241     0.371
100.794      4.240     0.377
102.260      4.240     0.383
103.747      4.240     0.389
105.256      4.239     0.395
106.787      4.239     0.402
108.340      4.239     0.408
109.916      4.238     0.414
111.515      4.238     0.421
113.137      4.238     0.428
114.783      4.237     0.435
116.452      4.237     0.442
118.146      4.236     0.449
119.865      4.236     0.456
121.608      4.236     0.463
123.377      4.235     0.471
125.171      4.235     0.478
126.992      4.234     0.486
128.839      4.234     0.494
130.713      4.233     0.502
132.615      4.233     0.511
134.543      4.232     0.519
136.500      4.232     0.528
138.486      4.231     0.536
140.500      4.231     0.545
142.544      4.230     0.554
144.617      4.229     0.564
146.721      4.229     0.573
148.855      4.228     0.583
151.020      4.227     0.593
153.217      4.227     0.603
155.445      4.226     0.613
157.706      4.225     0.624
160.000      4.225     0.634
162.327      4.224     0.645
164.688      4.223     0.657
167.084      4.222     0.668
169.514      4.221     0.680
171.980      4.221     0.692
174.481      4.220     0.704
177.019      4.219     0.717
179.594      4.218     0.729
182.206      4.217     0.742
184.856      4.216     0.756
187.545      4.215     0.769
190.273      4.214     0.784
193.041      4.213     0.798
195.849      4.212     0.813
198.697      4.211     0.828
201.587      4.210     0.843
204.520      4.208     0.859
207.494      4.207     0.875
210.512      4.206     0.891
213.574      4.205     0.908
216.681      4.203     0.926
219.833      4.202     0.944
223.030      4.201     0.962
226.274      4.199     0.981
229.565      4.198     1.000
232.905      4.196     1.019
236.292      4.195     1.040
239.729      4.193     1.060
243.216      4.192     1.082
246.754      4.190     1.104
250.343      4.188     1.126
253.984      4.186     1.149
257.678      4.185     1.173
261.426      4.183     1.197
265.229      4.181     1.222
269.087      4.179     1.248
273.001      4.177     1.275
276.972      4.175     1.302
281.000      4.173     1.330
285.088      4.171     1.359
289.234      4.168     1.388
293.441      4.166     1.419
297.709      4.164     1.450
302.040      4.161     1.482
306.433      4.159     1.516
310.890      4.156     1.550
315.412      4.154     1.585
320.000      4.151     1.622
324.655      4.149     1.659
329.377      4.146     1.698
334.168      4.143     1.738
339.028      4.140     1.779
343.959      4.137     1.821
348.962      4.134     1.865
354.038      4.131     1.910
359.188      4.128     1.957
364.412      4.124     2.005
369.713      4.121     2.055
375.090      4.118     2.106
380.546      4.114     2.159
386.081      4.110     2.213
391.697      4.107     2.270
397.394      4.103     2.328
403.175      4.099     2.388
409.039      4.095     2.451
414.989      4.091     2.515
421.025      4.087     2.582
427.149      4.083     2.650
433.362      4.079     2.722
439.665      4.074     2.795
446.060      4.070     2.871
452.548      4.066     2.950
459.131      4.061     3.031
465.809      4.056     3.115
472.584      4.052     3.202
479.458      4.047     3.293
486.432      4.042     3.386
493.507      4.037     3.482
500.686      4.032     3.582
507.968      4.027     3.686
515.357      4.021     3.793
522.853      4.016     3.903
530.458      4.011     4.018
538.174      4.005     4.137
546.002      4.000     4.260
553.943      3.994     4.387
562.001      3.989     4.518
570.175      3.983     4.655
578.469      3.977     4.796
586.883      3.971     4.942
595.419      3.966     5.093
604.080      3.960     5.249
612.866      3.954     5.411
621.780      3.948     5.579
630.824      3.942     5.752
640.000      3.936     5.932
649.309      3.930     6.117
658.753      3.924     6.309
668.335      3.918     6.508
678.056      3.913     6.713
687.919      3.907     6.926
697.925      3.901     7.145
708.077      3.895     7.372
718.376      3.890     7.607
728.825      3.884     7.849
739.426      3.879     8.100
750.181      3.874     8.358
761.093      3.869     8.625
772.163      3.864     8.900
783.394      3.859     9.184
794.789      3.855     9.477
806.349      3.851     9.779
818.078      3.847    10.091
829.977      3.843    10.411
842.050      3.840    10.742
854.298      3.837    11.082
866.724      3.834    11.431
879.330      3.832    11.791
892.120      3.830    12.161
905.097      3.829    12.540
918.262      3.828    12.930
931.618      3.827    13.330
945.169      3.828    13.740
958.917      3.829    14.160
972.864      3.830    14.590
987.015      3.832    15.030
1001.37      3.835    15.480
1015.94      3.839    15.939
1030.71      3.844    16.408
1045.71      3.849    16.887
1060.92      3.856    17.374
1076.35      3.863    17.870
1092.00      3.871    18.375
1107.89      3.881    18.887
1124.00      3.891    19.407
1140.35      3.903    19.934
1156.94      3.916    20.467
1173.77      3.931    21.007
1190.84      3.946    21.551
1208.16      3.964    22.101
1225.73      3.982    22.654
1243.56      4.002    23.210
1261.65      4.024    23.769
1280.00      4.048    24.329
1298.62      4.073    24.889
1317.51      4.100    25.449
1336.67      4.128    26.008
1356.11      4.159    26.564
1375.84      4.192    27.117
1395.85      4.226    27.665
1416.15      4.263    28.207
1436.75      4.302    28.743
1457.65      4.343    29.270
1478.85      4.386    29.789
1500.36      4.431    30.297
1522.19      4.479    30.793
1544.33      4.529    31.277
1566.79      4.582    31.747
1589.58      4.637    32.201
1612.70      4.694    32.640
1636.16      4.754    33.061
1659.95      4.817    33.463
1684.10      4.882    33.846
1708.60      4.950    34.208
1733.45      5.020    34.548
1758.66      5.094    34.866
1784.24      5.169    35.160
1810.19      5.248    35.430
1836.52      5.329    35.674
1863.24      5.412    35.891
1890.34      5.498    36.082
1917.83      5.587    36.245
1945.73      5.679    36.379
1974.03      5.772    36.485
2002.74      5.869    36.561
2031.87      5.968    36.607
2061.43      6.069    36.622
2091.41      6.172    36.607
2121.83      6.278    36.560
2152.69      6.385    36.482
2184.01      6.495    36.373
2215.77      6.606    36.231
2248.00      6.719    36.059
2280.70      6.834    35.854
2313.87      6.950    35.618
2347.53      7.068    35.351
2381.68      7.187    35.052
2416.32      7.306    34.723
2451.46      7.426    34.363
2487.12      7.547    33.974
2523.30      7.669    33.555
2560.00      7.790    33.107
2597.24      7.912    32.630
2635.01      8.033    32.127
2673.34      8.153    31.596
2712.23      8.273    31.039
2751.68      8.392    30.458
2791.70      8.509    29.852
2832.31      8.626    29.224
2873.50      8.740    28.573
2915.30      8.853    27.901
2957.70      8.963    27.209
3000.72      9.071    26.498
3044.37      9.177    25.770
3088.65      9.280    25.025
3133.58      9.380    24.265
3179.16      9.477    23.491
3225.40      9.570    22.704
3272.31      9.660    21.905
3319.91      9.747    21.095
3368.20      9.830    20.276
3417.19      9.910    19.449
3466.89      9.985    18.614
3517.32     10.057    17.773
3568.48     10.125    16.927
3620.39     10.189    16.077
3673.05     10.248    15.224
3726.47     10.304    14.368
3780.67     10.356    13.511
3835.67     10.404    12.653
3891.46     10.448    11.796
3948.06     10.488    10.939
4005.49     10.525    10.083
4063.75     10.557     9.229
4122.86     10.586     8.378
4182.82     10.611     7.530
4243.66     10.633     6.685
4305.39     10.651     5.844
4368.01     10.666     5.007
4431.55     10.678     4.175
4496.01     10.686     3.347
4561.40     10.692     2.525
4627.75     10.694     1.707
4695.06     10.693     0.894
4763.35     10.690     0.087
4832.64     10.684    -0.715
4902.93     10.675    -1.511
4974.24     10.664    -2.302
5046.60     10.651    -3.088
5120.00     10.635    -3.868
5194.47     10.616    -4.643
5270.03     10.596    -5.412
5346.68     10.573    -6.177
5424.45     10.549    -6.936
5503.35     10.522    -7.691
5583.40     10.494    -8.440
5664.61     10.463    -9.185
5747.01     10.431    -9.926
5830.60     10.397   -10.662
5915.41     10.361   -11.393
6001.45     10.324   -12.121
6088.74     10.284   -12.845
6177.30     10.244   -13.564
6267.15     10.202   -14.280
6358.31     10.158   -14.993
6450.80     10.112   -15.702
6544.62     10.066   -16.408
6639.82     10.017   -17.111
6736.40      9.968   -17.811
6834.38      9.917   -18.508
6933.79      9.864   -19.203
7034.64      9.810   -19.895
7136.96      9.755   -20.584
7240.77      9.698   -21.271
7346.09      9.640   -21.956
7452.94      9.581   -22.638
7561.35      9.520   -23.318
7671.33      9.458   -23.997
7782.91      9.395   -24.673
7896.12      9.330   -25.347
8010.97      9.264   -26.019
8127.49      9.196   -26.689
8245.71      9.128   -27.358
8365.65      9.058   -28.024
8487.33      8.986   -28.688
8610.78      8.913   -29.351
8736.03      8.839   -30.011
8863.09      8.764   -30.669
8992.01      8.687   -31.324
9122.80      8.609   -31.978
9255.50      8.530   -32.629
9390.12      8.450   -33.277
9526.70      8.368   -33.923
9665.27      8.285   -34.565
9805.86      8.200   -35.205
9948.49      8.115   -35.841
10093.2      8.028   -36.474
10240.0      7.939   -37.103
10388.9      7.850   -37.728
10540.1      7.760   -38.349
10693.4      7.668   -38.965
10848.9      7.575   -39.576
11006.7      7.481   -40.182
11166.8      7.386   -40.782
11329.2      7.290   -41.376
11494.0      7.192   -41.964
11661.2      7.094   -42.544
11830.8      6.995   -43.118
12002.9      6.895   -43.683
12177.5      6.794   -44.240
12354.6      6.692   -44.788
12534.3      6.589   -45.327
12716.6      6.485   -45.855
12901.6      6.381   -46.373
13089.2      6.276   -46.879
13279.6      6.171   -47.373
13472.8      6.064   -47.854
13668.8      5.958   -48.321
13867.6      5.851   -48.774
14069.3      5.743   -49.211
14273.9      5.636   -49.632
14481.5      5.528   -50.036
14692.2      5.419   -50.422
14905.9      5.311   -50.788
15122.7      5.203   -51.134
15342.7      5.094   -51.459
15565.8      4.986   -51.760
15792.2      4.878   -52.038
16021.9      4.770   -52.290
16255.0      4.663   -52.516
16491.4      4.556   -52.713
16731.3      4.450   -52.881
16974.7      4.344   -53.016
17221.6      4.238   -53.119
17472.1      4.134   -53.187
17726.2      4.030   -53.218
17984.0      3.927   -53.210
18245.6      3.826   -53.160
18511.0      3.725   -53.068
18780.2      3.626   -52.929
19053.4      3.527   -52.743
19330.5      3.431   -52.506
19611.7      3.335   -52.215
19897.0      3.242   -51.868
20186.4      3.150   -51.462
20480.0      3.059   -50.994
20777.9      2.971   -50.460
21080.1      2.885   -49.858
21386.7      2.801   -49.183
21697.8      2.719   -48.434
22013.4      2.639   -47.607
22333.6      2.562   -46.698
22658.4      2.488   -45.704
22988.0      2.416   -44.624
23322.4      2.347   -43.454
23661.6      2.282   -42.192
24005.8      2.219   -40.837
24355.0      2.160   -39.388
24709.2      2.104   -37.845
25068.6      2.052   -36.210
25433.2      2.003   -34.483
25803.2      1.958   -32.670
26178.5      1.917   -30.773
26559.3      1.880   -28.800
26945.6      1.848   -26.757
27337.5      1.819   -24.654
27735.2      1.794   -22.500
28138.6      1.774   -20.307
28547.9      1.758   -18.086
28963.1      1.746   -15.850
29384.4      1.738   -13.611
29811.8      1.733   -11.381
30245.4      1.733    -9.172
30685.3      1.736    -6.996
31131.7      1.743    -4.862
31584.5      1.753    -2.779
32043.9      1.766    -0.755
32510.0      1.782     1.205
32982.8      1.801     3.095
33462.6      1.822     4.912
33949.3      1.846     6.654
34443.1      1.871     8.320
34944.1      1.899     9.909
35452.4      1.928    11.422
35968.0      1.959    12.861
36491.2      1.992    14.227
37022.0      2.026    15.522
37560.5      2.060    16.750
38106.8      2.096    17.912
38661.1      2.133    19.011
39223.4      2.171    20.052
39793.9      2.209    21.036
