* This data was exported from the Dayton Audio Test System: DATS
*
* Piston Diameter = 28 mm
* f(s)= 1794 Hz
* R(e)= 3.384 Ohms
* Z(max)= 4.786 Ohms
* Q(ms)= 1.694
* Q(es)= 4.09
* Q(ts)= 1.198
* V(as)= 0 liters     (0 cubic feet)
* L(e)= 0.09512 mH
* n(0)= 0 %
* SPL= 0 1W/1m
* M(ms)= 0 grams
* C(ms)= 0 mm/N
* BL= 0 
* K(r)= 2.09 
* X(r)= 0.05176 
* K(i)= 0 
* X(i)= 1.607 
*
*
Freq            Impedance       Phase
1.029    	3.357    	-0.521    
1.059    	3.357    	-0.521    
1.091    	3.357    	-0.521    
1.122    	3.357    	-0.521    
1.155    	3.357    	-0.521    
1.189    	3.357    	-0.521    
1.224    	3.357    	-0.521    
1.260    	3.357    	-0.521    
1.297    	3.357    	-0.521    
1.335    	3.350    	-0.543    
1.374    	3.350    	-0.543    
1.414    	3.350    	-0.543    
1.456    	3.350    	-0.543    
1.498    	3.350    	-0.543    
1.542    	3.350    	-0.543    
1.587    	3.350    	-0.543    
1.634    	3.350    	-0.543    
1.682    	3.346    	-0.491    
1.731    	3.346    	-0.491    
1.782    	3.346    	-0.491    
1.834    	3.346    	-0.491    
1.888    	3.346    	-0.491    
1.943    	3.346    	-0.491    
2.000    	3.347    	-0.423    
2.059    	3.347    	-0.423    
2.119    	3.347    	-0.423    
2.181    	3.347    	-0.423    
2.245    	3.347    	-0.423    
2.311    	3.347    	-0.423    
2.378    	3.350    	-0.399    
2.448    	3.350    	-0.399    
2.520    	3.350    	-0.399    
2.594    	3.350    	-0.399    
2.670    	3.352    	-0.346    
2.748    	3.352    	-0.346    
2.828    	3.352    	-0.346    
2.911    	3.352    	-0.346    
2.997    	3.350    	-0.256    
3.084    	3.350    	-0.256    
3.175    	3.350    	-0.256    
3.268    	3.350    	-0.256    
3.364    	3.353    	-0.126    
3.462    	3.353    	-0.126    
3.564    	3.353    	-0.126    
3.668    	3.349    	0.031    
3.775    	3.349    	0.031    
3.886    	3.349    	0.031    
4.000    	3.351    	0.172    
4.117    	3.351    	0.172    
4.238    	3.351    	0.172    
4.362    	3.347    	0.290    
4.490    	3.347    	0.290    
4.621    	3.347    	0.290    
4.757    	3.348    	0.358    
4.896    	3.348    	0.358    
5.040    	3.350    	0.402    
5.187    	3.350    	0.402    
5.339    	3.353    	0.436    
5.496    	3.353    	0.436    
5.657    	3.356    	0.454    
5.823    	3.356    	0.454    
5.993    	3.355    	0.467    
6.169    	3.355    	0.467    
6.350    	3.354    	0.470    
6.536    	3.354    	0.470    
6.727    	3.352    	0.460    
6.924    	3.352    	0.460    
7.127    	3.351    	0.451    
7.336    	3.349    	0.451    
7.551    	3.349    	0.451    
7.772    	3.348    	0.453    
8.000    	3.347    	0.455    
8.234    	3.347    	0.455    
8.476    	3.346    	0.470    
8.724    	3.345    	0.494    
8.980    	3.345    	0.506    
9.243    	3.345    	0.506    
9.514    	3.345    	0.507    
9.792    	3.344    	0.509    
10.079    	3.344    	0.512    
10.375    	3.343    	0.509    
10.679    	3.343    	0.502    
10.992    	3.343    	0.500    
11.314    	3.343    	0.499    
11.645    	3.343    	0.494    
11.986    	3.343    	0.492    
12.338    	3.343    	0.493    
12.699    	3.344    	0.487    
13.071    	3.345    	0.475    
13.454    	3.346    	0.471    
13.849    	3.347    	0.480    
14.254    	3.348    	0.487    
14.672    	3.350    	0.485    
15.102    	3.351    	0.491    
15.545    	3.352    	0.509    
16.000    	3.354    	0.547    
16.469    	3.355    	0.590    
16.951    	3.357    	0.627    
17.448    	3.359    	0.664    
17.959    	3.360    	0.702    
18.486    	3.361    	0.724    
19.027    	3.361    	0.742    
19.585    	3.362    	0.775    
20.159    	3.362    	0.791    
20.749    	3.362    	0.810    
21.357    	3.361    	0.838    
21.983    	3.361    	0.863    
22.627    	3.360    	0.880    
23.290    	3.360    	0.887    
23.973    	3.361    	0.889    
24.675    	3.361    	0.884    
25.398    	3.362    	0.876    
26.143    	3.363    	0.871    
26.909    	3.365    	0.866    
27.697    	3.367    	0.852    
28.509    	3.368    	0.849    
29.344    	3.369    	0.866    
30.204    	3.371    	0.904    
31.089    	3.372    	0.943    
32.000    	3.373    	0.976    
32.938    	3.374    	1.015    
33.903    	3.375    	1.052    
34.896    	3.376    	1.089    
35.919    	3.376    	1.111    
36.971    	3.376    	1.125    
38.055    	3.375    	1.123    
39.170    	3.376    	1.103    
40.317    	3.376    	1.070    
41.499    	3.376    	1.030    
42.715    	3.381    	0.994    
43.967    	3.387    	1.043    
45.255    	3.390    	1.138    
46.581    	3.392    	1.194    
47.946    	3.392    	1.230    
49.351    	3.394    	1.275    
50.797    	3.390    	1.260    
52.285    	3.389    	1.248    
53.817    	3.394    	1.200    
55.394    	3.397    	1.172    
57.018    	3.399    	1.194    
58.688    	3.401    	1.269    
60.408    	3.402    	1.307    
62.178    	3.401    	1.294    
64.000    	3.401    	1.318    
65.875    	3.398    	1.338    
67.806    	3.396    	1.315    
69.792    	3.402    	1.239    
71.838    	3.408    	1.248    
73.943    	3.409    	1.317    
76.109    	3.409    	1.427    
78.339    	3.405    	1.437    
80.635    	3.408    	1.367    
82.998    	3.412    	1.342    
85.430    	3.413    	1.390    
87.933    	3.413    	1.380    
90.510    	3.415    	1.417    
93.162    	3.414    	1.454    
95.892    	3.411    	1.425    
98.701    	3.420    	1.434    
101.594    	3.425    	1.553    
104.571    	3.418    	1.581    
107.635    	3.416    	1.499    
110.789    	3.421    	1.486    
114.035    	3.423    	1.540    
117.377    	3.424    	1.562    
120.816    	3.423    	1.660    
124.356    	3.420    	1.606    
128.000    	3.428    	1.613    
131.751    	3.423    	1.728    
135.611    	3.422    	1.667    
139.585    	3.426    	1.667    
143.675    	3.429    	1.731    
147.885    	3.427    	1.853    
152.219    	3.423    	1.739    
156.679    	3.432    	1.840    
161.270    	3.429    	1.898    
165.995    	3.430    	1.872    
170.860    	3.433    	1.919    
175.866    	3.431    	2.004    
181.019    	3.433    	1.974    
186.324    	3.434    	2.112    
191.783    	3.433    	2.090    
197.403    	3.434    	2.073    
203.187    	3.437    	2.194    
209.141    	3.441    	2.159    
215.269    	3.440    	2.276    
221.577    	3.438    	2.276    
228.070    	3.441    	2.332    
234.753    	3.440    	2.387    
241.632    	3.444    	2.466    
248.712    	3.444    	2.517    
256.000    	3.447    	2.617    
263.501    	3.447    	2.620    
271.223    	3.447    	2.711    
279.170    	3.450    	2.734    
287.350    	3.449    	2.843    
295.770    	3.454    	2.904    
304.437    	3.453    	2.961    
313.358    	3.453    	3.018    
322.540    	3.456    	3.126    
331.991    	3.461    	3.225    
341.719    	3.463    	3.315    
351.732    	3.462    	3.387    
362.039    	3.463    	3.467    
372.647    	3.466    	3.582    
383.567    	3.472    	3.641    
394.806    	3.473    	3.716    
406.375    	3.476    	3.846    
418.282    	3.479    	3.948    
430.539    	3.480    	4.014    
443.155    	3.484    	4.140    
456.140    	3.488    	4.238    
469.506    	3.489    	4.391    
483.264    	3.494    	4.495    
497.424    	3.497    	4.593    
512.000    	3.502    	4.740    
527.003    	3.508    	4.857    
542.445    	3.512    	4.973    
558.340    	3.518    	5.128    
574.701    	3.524    	5.299    
591.541    	3.528    	5.430    
608.874    	3.533    	5.571    
626.715    	3.539    	5.724    
645.080    	3.547    	5.848    
663.982    	3.555    	6.022    
683.438    	3.563    	6.196    
703.464    	3.571    	6.392    
724.077    	3.580    	6.560    
745.294    	3.590    	6.744    
767.133    	3.601    	6.935    
789.612    	3.613    	7.140    
812.749    	3.624    	7.351    
836.565    	3.639    	7.547    
861.078    	3.654    	7.743    
886.309    	3.670    	7.947    
912.280    	3.688    	8.147    
939.012    	3.709    	8.370    
966.527    	3.730    	8.584    
994.849    	3.754    	8.865    
1024.000    	3.775    	9.032    
1054.005    	3.800    	9.213    
1084.890    	3.833    	9.419    
1116.680    	3.865    	9.594    
1149.401    	3.898    	9.787    
1183.081    	3.939    	9.920    
1217.748    	3.984    	10.048    
1253.431    	4.029    	10.163    
1290.159    	4.082    	10.186    
1327.964    	4.140    	10.178    
1366.876    	4.199    	10.097    
1406.929    	4.262    	9.942    
1448.155    	4.327    	9.661    
1490.589    	4.398    	9.296    
1534.266    	4.471    	8.784    
1579.224    	4.547    	8.132    
1625.499    	4.623    	7.290    
1673.129    	4.689    	6.204    
1722.156    	4.740    	4.995    
1772.619    	4.775    	3.610    
1824.561    	4.790    	2.181    
1878.024    	4.779    	0.737    
1933.055    	4.750    	-0.702    
1989.697    	4.698    	-1.996    
2048.000    	4.625    	-3.202    
2108.011    	4.542    	-4.206    
2169.780    	4.451    	-4.962    
2233.360    	4.361    	-5.494    
2298.802    	4.270    	-5.840    
2366.162    	4.182    	-5.972    
2435.496    	4.101    	-5.928    
2506.862    	4.027    	-5.774    
2580.318    	3.963    	-5.521    
2655.927    	3.907    	-5.253    
2733.752    	3.859    	-4.868    
2813.857    	3.817    	-4.457    
2896.309    	3.778    	-4.026    
2981.178    	3.742    	-3.559    
3068.533    	3.719    	-3.119    
3158.448    	3.696    	-2.697    
3250.997    	3.673    	-2.253    
3346.259    	3.655    	-1.787    
3444.312    	3.641    	-1.329    
3545.238    	3.633    	-0.918    
3649.121    	3.619    	-0.581    
3756.049    	3.608    	-0.182    
3866.109    	3.600    	0.283    
3979.395    	3.593    	0.653    
4096.000    	3.586    	1.035    
4216.022    	3.580    	1.465    
4339.561    	3.576    	1.850    
4466.720    	3.571    	2.238    
4597.605    	3.571    	2.634    
4732.325    	3.571    	3.000    
4870.992    	3.570    	3.384    
5013.723    	3.570    	3.747    
5160.637    	3.572    	4.109    
5311.855    	3.574    	4.432    
5467.504    	3.576    	4.799    
5627.714    	3.573    	5.174    
5792.619    	3.579    	5.569    
5962.355    	3.583    	5.932    
6137.066    	3.585    	6.278    
6316.896    	3.586    	6.646    
6501.995    	3.594    	7.026    
6692.518    	3.599    	7.416    
6888.623    	3.605    	7.776    
7090.476    	3.609    	8.155    
7298.242    	3.617    	8.552    
7512.097    	3.626    	8.945    
7732.218    	3.635    	9.299    
7958.790    	3.643    	9.665    
8192.000    	3.652    	10.067    
8432.044    	3.661    	10.467    
8679.122    	3.671    	10.826    
8933.439    	3.684    	11.234    
9195.209    	3.697    	11.622    
9464.649    	3.709    	12.003    
9741.985    	3.723    	12.421    
10027.447    	3.734    	12.838    
10321.273    	3.748    	13.283    
10623.710    	3.763    	13.616    
10935.008    	3.779    	13.990    
11255.428    	3.795    	14.414    
11585.238    	3.811    	14.848    
11924.711    	3.828    	15.285    
12274.132    	3.845    	15.715    
12633.791    	3.864    	16.169    
13003.989    	3.884    	16.593    
13385.035    	3.906    	17.091    
13777.247    	3.933    	17.553    
14180.951    	3.965    	18.018    
14596.485    	4.005    	18.391    
15024.194    	4.041    	18.600    
15464.437    	4.063    	18.708    
15917.579    	4.059    	19.000    
16384.000    	4.071    	19.562    
16864.088    	4.098    	20.219    
17358.243    	4.137    	20.707    
17866.879    	4.172    	21.011    
18390.418    	4.200    	21.401    
18929.299    	4.229    	21.847    
19483.969    	4.264    	22.254    
20054.893    	4.298    	22.657    
20642.546    	4.342    	23.120    
