* This data was exported from the Dayton Audio Test System: DATS
*
* Piston Diameter = 16 mm
* f(s)= 822 Hz
* R(e)= 4.979 Ohms
* Z(max)= 15.37 Ohms
* Q(ms)= 3.681
* Q(es)= 1.764
* Q(ts)= 1.193
* V(as)= 0 liters     (0 cubic feet)
* L(e)= 0 mH
* n(0)= 0 %
* SPL= 0 1W/1m
* M(ms)= 0 grams
* C(ms)= 0 mm/N
* BL= 0 
* K(r)= 0.3589 
* X(r)= 0.2626 
* K(i)= 7.04e-05 
* X(i)= 0.9766 
*
*
Freq            Impedance       Phase
1.029    	4.951    	-0.312    
1.059    	4.951    	-0.312    
1.091    	4.951    	-0.312    
1.122    	4.951    	-0.312    
1.155    	4.951    	-0.312    
1.189    	4.951    	-0.312    
1.224    	4.951    	-0.312    
1.260    	4.951    	-0.312    
1.297    	4.951    	-0.312    
1.335    	4.947    	-0.254    
1.374    	4.947    	-0.254    
1.414    	4.947    	-0.254    
1.456    	4.947    	-0.254    
1.498    	4.947    	-0.254    
1.542    	4.947    	-0.254    
1.587    	4.947    	-0.254    
1.634    	4.947    	-0.254    
1.682    	4.944    	-0.226    
1.731    	4.944    	-0.226    
1.782    	4.944    	-0.226    
1.834    	4.944    	-0.226    
1.888    	4.944    	-0.226    
1.943    	4.944    	-0.226    
2.000    	4.953    	-0.171    
2.059    	4.953    	-0.171    
2.119    	4.953    	-0.171    
2.181    	4.953    	-0.171    
2.245    	4.953    	-0.171    
2.311    	4.953    	-0.171    
2.378    	4.956    	-0.076    
2.448    	4.956    	-0.076    
2.520    	4.956    	-0.076    
2.594    	4.956    	-0.076    
2.670    	4.959    	0.021    
2.748    	4.959    	0.021    
2.828    	4.959    	0.021    
2.911    	4.959    	0.021    
2.997    	4.959    	0.134    
3.084    	4.959    	0.134    
3.175    	4.959    	0.134    
3.268    	4.959    	0.134    
3.364    	4.964    	0.244    
3.462    	4.964    	0.244    
3.564    	4.964    	0.244    
3.668    	4.962    	0.360    
3.775    	4.962    	0.360    
3.886    	4.962    	0.360    
4.000    	4.965    	0.472    
4.117    	4.965    	0.472    
4.238    	4.965    	0.472    
4.362    	4.965    	0.545    
4.490    	4.965    	0.545    
4.621    	4.965    	0.545    
4.757    	4.968    	0.615    
4.896    	4.968    	0.615    
5.040    	4.965    	0.675    
5.187    	4.965    	0.675    
5.339    	4.960    	0.709    
5.496    	4.960    	0.709    
5.657    	4.956    	0.716    
5.823    	4.956    	0.716    
5.993    	4.956    	0.711    
6.169    	4.956    	0.711    
6.350    	4.963    	0.723    
6.536    	4.963    	0.723    
6.727    	4.971    	0.754    
6.924    	4.971    	0.754    
7.127    	4.974    	0.790    
7.336    	4.973    	0.826    
7.551    	4.973    	0.826    
7.772    	4.970    	0.855    
8.000    	4.968    	0.886    
8.234    	4.968    	0.886    
8.476    	4.966    	0.924    
8.724    	4.965    	0.959    
8.980    	4.964    	0.990    
9.243    	4.964    	0.990    
9.514    	4.963    	1.016    
9.792    	4.963    	1.036    
10.079    	4.964    	1.063    
10.375    	4.964    	1.096    
10.679    	4.962    	1.120    
10.992    	4.960    	1.133    
11.314    	4.961    	1.142    
11.645    	4.965    	1.160    
11.986    	4.969    	1.184    
12.338    	4.972    	1.201    
12.699    	4.974    	1.213    
13.071    	4.973    	1.233    
13.454    	4.970    	1.255    
13.849    	4.969    	1.276    
14.254    	4.971    	1.296    
14.672    	4.978    	1.339    
15.102    	4.983    	1.390    
15.545    	4.987    	1.425    
16.000    	4.987    	1.480    
16.469    	4.986    	1.534    
16.951    	4.989    	1.584    
17.448    	4.993    	1.629    
17.959    	4.994    	1.677    
18.486    	4.994    	1.734    
19.027    	4.993    	1.785    
19.585    	4.993    	1.853    
20.159    	4.996    	1.906    
20.749    	5.000    	1.949    
21.357    	5.003    	2.012    
21.983    	5.004    	2.066    
22.627    	5.005    	2.115    
23.290    	5.003    	2.157    
23.973    	5.004    	2.194    
24.675    	5.006    	2.230    
25.398    	5.008    	2.268    
26.143    	5.013    	2.313    
26.909    	5.015    	2.373    
27.697    	5.016    	2.430    
28.509    	5.020    	2.461    
29.344    	5.022    	2.518    
30.204    	5.027    	2.584    
31.089    	5.030    	2.662    
32.000    	5.033    	2.739    
32.938    	5.035    	2.822    
33.903    	5.038    	2.892    
34.896    	5.040    	2.961    
35.919    	5.042    	3.041    
36.971    	5.047    	3.123    
38.055    	5.050    	3.187    
39.170    	5.050    	3.226    
40.317    	5.053    	3.263    
41.499    	5.058    	3.324    
42.715    	5.068    	3.360    
43.967    	5.073    	3.471    
45.255    	5.080    	3.572    
46.581    	5.083    	3.699    
47.946    	5.085    	3.756    
49.351    	5.088    	3.863    
50.797    	5.090    	3.949    
52.285    	5.097    	3.997    
53.817    	5.104    	4.092    
55.394    	5.112    	4.143    
57.018    	5.113    	4.231    
58.688    	5.120    	4.265    
60.408    	5.128    	4.384    
62.178    	5.134    	4.480    
64.000    	5.139    	4.568    
65.875    	5.142    	4.658    
67.806    	5.145    	4.735    
69.792    	5.155    	4.783    
71.838    	5.166    	4.898    
73.943    	5.171    	4.990    
76.109    	5.177    	5.084    
78.339    	5.183    	5.178    
80.635    	5.193    	5.276    
82.998    	5.195    	5.339    
85.430    	5.201    	5.399    
87.933    	5.215    	5.531    
90.510    	5.222    	5.694    
93.162    	5.223    	5.732    
95.892    	5.230    	5.810    
98.701    	5.245    	5.960    
101.594    	5.251    	6.094    
104.571    	5.256    	6.114    
107.635    	5.265    	6.235    
110.789    	5.271    	6.334    
114.035    	5.281    	6.403    
117.377    	5.287    	6.564    
120.816    	5.295    	6.697    
124.356    	5.304    	6.814    
128.000    	5.316    	6.922    
131.751    	5.319    	7.046    
135.611    	5.327    	7.158    
139.585    	5.335    	7.245    
143.675    	5.347    	7.403    
147.885    	5.353    	7.587    
152.219    	5.362    	7.649    
156.679    	5.374    	7.816    
161.270    	5.382    	8.017    
165.995    	5.388    	8.116    
170.860    	5.403    	8.281    
175.866    	5.408    	8.429    
181.019    	5.419    	8.600    
186.324    	5.429    	8.811    
191.783    	5.438    	8.980    
197.403    	5.452    	9.134    
203.187    	5.460    	9.381    
209.141    	5.473    	9.536    
215.269    	5.488    	9.773    
221.577    	5.497    	9.977    
228.070    	5.512    	10.214    
234.753    	5.523    	10.430    
241.632    	5.542    	10.682    
248.712    	5.556    	10.950    
256.000    	5.572    	11.205    
263.501    	5.585    	11.464    
271.223    	5.600    	11.754    
279.170    	5.622    	12.053    
287.350    	5.639    	12.376    
295.770    	5.663    	12.687    
304.437    	5.684    	13.025    
313.358    	5.706    	13.344    
322.540    	5.733    	13.731    
331.991    	5.761    	14.096    
341.719    	5.790    	14.515    
351.732    	5.821    	14.919    
362.039    	5.852    	15.344    
372.647    	5.892    	15.831    
383.567    	5.933    	16.281    
394.806    	5.974    	16.778    
406.375    	6.025    	17.301    
418.282    	6.081    	17.822    
430.539    	6.136    	18.365    
443.155    	6.203    	18.976    
456.140    	6.275    	19.557    
469.506    	6.351    	20.206    
483.264    	6.445    	20.905    
497.424    	6.544    	21.570    
512.000    	6.659    	22.297    
527.003    	6.793    	23.017    
542.445    	6.946    	23.746    
558.340    	7.119    	24.484    
574.701    	7.322    	25.234    
591.541    	7.554    	25.980    
608.874    	7.830    	26.662    
626.715    	8.160    	27.275    
645.080    	8.556    	27.736    
663.982    	9.032    	28.043    
683.438    	9.610    	28.022    
703.464    	10.319    	27.512    
724.077    	11.178    	26.249    
745.294    	12.196    	23.893    
767.133    	13.312    	20.075    
789.612    	14.375    	14.618    
812.749    	15.165    	7.577    
836.565    	15.439    	-0.342    
861.078    	15.143    	-8.106    
886.309    	14.397    	-15.055    
912.280    	13.408    	-20.805    
939.012    	12.311    	-25.267    
966.527    	11.209    	-28.416    
994.849    	10.191    	-30.214    
1024.000    	9.314    	-30.985    
1054.005    	8.562    	-30.891    
1084.890    	7.945    	-30.185    
1116.680    	7.449    	-28.995    
1149.401    	7.050    	-27.538    
1183.081    	6.724    	-26.033    
1217.748    	6.449    	-24.444    
1253.431    	6.219    	-22.761    
1290.159    	6.036    	-21.043    
1327.964    	5.889    	-19.333    
1366.876    	5.768    	-17.677    
1406.929    	5.668    	-16.082    
1448.155    	5.586    	-14.541    
1490.589    	5.522    	-13.041    
1534.266    	5.469    	-11.542    
1579.224    	5.435    	-10.081    
1625.499    	5.417    	-8.596    
1673.129    	5.431    	-7.039    
1722.156    	5.509    	-5.779    
1772.619    	5.611    	-5.561    
1824.561    	5.626    	-6.035    
1878.024    	5.556    	-6.176    
1933.055    	5.479    	-5.723    
1989.697    	5.420    	-4.852    
2048.000    	5.372    	-3.931    
2108.011    	5.346    	-2.932    
2169.780    	5.328    	-1.979    
2233.360    	5.319    	-1.023    
2298.802    	5.315    	-0.111    
2366.162    	5.322    	0.780    
2435.496    	5.326    	1.653    
2506.862    	5.337    	2.447    
2580.318    	5.357    	3.206    
2655.927    	5.373    	4.007    
2733.752    	5.399    	4.789    
2813.857    	5.429    	5.543    
2896.309    	5.467    	6.213    
2981.178    	5.510    	6.896    
3068.533    	5.571    	7.368    
3158.448    	5.631    	7.568    
3250.997    	5.674    	7.522    
3346.259    	5.669    	7.357    
3444.312    	5.629    	7.484    
3545.238    	5.588    	7.982    
3649.121    	5.570    	8.735    
3756.049    	5.565    	9.497    
3866.109    	5.575    	10.308    
3979.395    	5.588    	11.014    
4096.000    	5.607    	11.750    
4216.022    	5.632    	12.446    
4339.561    	5.660    	13.124    
4466.720    	5.690    	13.817    
4597.605    	5.727    	14.432    
4732.325    	5.760    	15.049    
4870.992    	5.798    	15.661    
5013.723    	5.834    	16.274    
5160.637    	5.873    	16.870    
5311.855    	5.917    	17.453    
5467.504    	5.960    	18.052    
5627.714    	6.007    	18.632    
5792.619    	6.053    	19.219    
5962.355    	6.099    	19.772    
6137.066    	6.146    	20.292    
6316.896    	6.196    	20.831    
6501.995    	6.250    	21.392    
6692.518    	6.305    	21.926    
6888.623    	6.364    	22.439    
7090.476    	6.418    	22.925    
7298.242    	6.474    	23.455    
7512.097    	6.533    	23.969    
7732.218    	6.593    	24.502    
7958.790    	6.657    	25.040    
8192.000    	6.722    	25.549    
8432.044    	6.791    	26.094    
8679.122    	6.859    	26.595    
8933.439    	6.934    	27.077    
9195.209    	7.011    	27.592    
9464.649    	7.087    	28.068    
9741.985    	7.165    	28.534    
10027.447    	7.244    	29.015    
10321.273    	7.327    	29.503    
10623.710    	7.409    	29.969    
10935.008    	7.500    	30.450    
11255.428    	7.589    	30.899    
11585.238    	7.683    	31.355    
11924.711    	7.777    	31.812    
12274.132    	7.877    	32.239    
12633.791    	7.980    	32.667    
13003.989    	8.079    	33.079    
13385.035    	8.188    	33.499    
13777.247    	8.294    	33.889    
14180.951    	8.405    	34.287    
14596.485    	8.522    	34.654    
15024.194    	8.635    	35.055    
15464.437    	8.757    	35.442    
15917.579    	8.870    	35.794    
16384.000    	8.993    	36.145    
16864.088    	9.116    	36.498    
17358.243    	9.241    	36.844    
17866.879    	9.370    	37.181    
18390.418    	9.500    	37.504    
18929.299    	9.626    	37.823    
19483.969    	9.756    	38.120    
20054.893    	9.877    	38.368    
20642.546    	9.998    	38.681    
